*** DATA FILES ***

Raw data file name(s)	DLT001_Al_10_5.dp
Sample ID		AlAs deltas
Sample code			
Data process ID			
Analysis date		05/08/2007
Analysis time		13:40	
Analysis recipe name	No_name_1.rdp

*** DATA START ***

DLT001_Al_10_5.dp
133Cs 27Al				133Cs 69Ga				133Cs 75As
Time[mn]	Depth	I[cnt/s]	Time[mn]	Depth	I[cnt/s]	Time[mn]	Depth	I[cnt/s]
2.40000E-002		1.26501E+002	5.46667E-002		8.71941E+003	8.40000E-002		6.51140E+003
1.16000E-001		8.79097E+002	1.46667E-001		4.66109E+004	1.76000E-001		2.17603E+004
2.08000E-001		8.56010E+002	2.38667E-001		7.32695E+004	2.68000E-001		3.02845E+004
3.00000E-001		6.63005E+002	3.30667E-001		9.50246E+004	3.60000E-001		3.48353E+004
3.92000E-001		4.14600E+002	4.22667E-001		1.13389E+005	4.52000E-001		3.65025E+004
4.84000E-001		2.50234E+002	5.14667E-001		1.26617E+005	5.44000E-001		3.64821E+004
5.76000E-001		1.43122E+002	6.06667E-001		1.35375E+005	6.36000E-001		3.66753E+004
6.68000E-001		8.77193E+001	6.98667E-001		1.41828E+005	7.28000E-001		3.61514E+004
7.60000E-001		7.94090E+001	7.90667E-001		1.47223E+005	8.20000E-001		3.57724E+004
8.52000E-001		5.35548E+001	8.82667E-001		1.52222E+005	9.12000E-001		3.54065E+004
9.44000E-001		5.44782E+001	9.74667E-001		1.56132E+005	1.00400E+000		3.50628E+004
1.03600E+000		3.60109E+001	1.06667E+000		1.59284E+005	1.09600E+000		3.48409E+004
1.12800E+000		3.50876E+001	1.15867E+000		1.62414E+005	1.18800E+000		3.45232E+004
1.22000E+000		2.86241E+001	1.25067E+000		1.64508E+005	1.28000E+000		3.46124E+004
1.31200E+000		3.04708E+001	1.34267E+000		1.66437E+005	1.37200E+000		3.41713E+004
1.40400E+000		1.84671E+001	1.43467E+000		1.68776E+005	1.46400E+000		3.39410E+004
1.49600E+000		2.30839E+001	1.52667E+000		1.69568E+005	1.55600E+000		3.37590E+004
1.58800E+000		1.84671E+001	1.61867E+000		1.71597E+005	1.64800E+000		3.36931E+004
1.68000E+000		2.77007E+001	1.71067E+000		1.71448E+005	1.74000E+000		3.36411E+004
1.77200E+000		1.75437E+001	1.80267E+000		1.71817E+005	1.83200E+000		3.37098E+004
1.86400E+000		1.29270E+001	1.89467E+000		1.72713E+005	1.92400E+000		3.40162E+004
1.95600E+000		2.21605E+001	1.98667E+000		1.74488E+005	2.01600E+000		3.34740E+004
2.04800E+000		1.93905E+001	2.07867E+000		1.74780E+005	2.10800E+000		3.38222E+004
2.14000E+000		2.30839E+001	2.17067E+000		1.75994E+005	2.20000E+000		3.33857E+004
2.23200E+000		2.12372E+001	2.26267E+000		1.76200E+005	2.29200E+000		3.35891E+004
2.32400E+000		1.93905E+001	2.35467E+000		1.77143E+005	2.38400E+000		3.31350E+004
2.41600E+000		4.33978E+001	2.44667E+000		1.78185E+005	2.47600E+000		3.30747E+004
2.50800E+000		3.12102E+002	2.53867E+000		1.78856E+005	2.56800E+000		3.32474E+004
2.60000E+000		2.51668E+003	2.63067E+000		1.78337E+005	2.66000E+000		3.31239E+004
2.69200E+000		8.59796E+003	2.72267E+000		1.73536E+005	2.75200E+000		3.26319E+004
2.78400E+000		1.40810E+004	2.81467E+000		1.72904E+005	2.84400E+000		3.21631E+004
2.87600E+000		1.58119E+004	2.90667E+000		1.72731E+005	2.93600E+000		3.14595E+004
2.96800E+000		1.41439E+004	2.99867E+000		1.74351E+005	3.02800E+000		3.13239E+004
3.06000E+000		1.18639E+004	3.09067E+000		1.76486E+005	3.12000E+000		3.13917E+004
3.15200E+000		9.24526E+003	3.18267E+000		1.78573E+005	3.21200E+000		3.17936E+004
3.24400E+000		7.18799E+003	3.27467E+000		1.79134E+005	3.30400E+000		3.15615E+004
3.33600E+000		5.41883E+003	3.36667E+000		1.79931E+005	3.39600E+000		3.14279E+004
3.42800E+000		4.16392E+003	3.45867E+000		1.80530E+005	3.48800E+000		3.20572E+004
3.52000E+000		3.13653E+003	3.55067E+000		1.80613E+005	3.58000E+000		3.15207E+004
3.61200E+000		2.51851E+003	3.64267E+000		1.80365E+005	3.67200E+000		3.17045E+004
3.70400E+000		1.88578E+003	3.73467E+000		1.80476E+005	3.76400E+000		3.19728E+004
3.79600E+000		1.39904E+003	3.82667E+000		1.81105E+005	3.85600E+000		3.20879E+004
3.88800E+000		1.12290E+003	3.91867E+000		1.80053E+005	3.94800E+000		3.19319E+004
3.98000E+000		8.45852E+002	4.01067E+000		1.80601E+005	4.04000E+000		3.19514E+004
4.07200E+000		6.88862E+002	4.10267E+000		1.80464E+005	4.13200E+000		3.19570E+004
4.16400E+000		5.06943E+002	4.19467E+000		1.79612E+005	4.22400E+000		3.17240E+004
4.25600E+000		4.26605E+002	4.28667E+000		1.80031E+005	4.31600E+000		3.18994E+004
4.34800E+000		2.98251E+002	4.37867E+000		1.79455E+005	4.40800E+000		3.16720E+004
4.44000E+000		2.53928E+002	4.47067E+000		1.78970E+005	4.50000E+000		3.15328E+004
4.53200E+000		1.89291E+002	4.56267E+000		1.79756E+005	4.59200E+000		3.12320E+004
4.62400E+000		1.72670E+002	4.65467E+000		1.79019E+005	4.68400E+000		3.14047E+004
4.71600E+000		1.44968E+002	4.74667E+000		1.78562E+005	4.77600E+000		3.12497E+004
4.80800E+000		1.03417E+002	4.83867E+000		1.78203E+005	4.86800E+000		3.11856E+004
4.90000E+000		8.49492E+001	4.93067E+000		1.78079E+005	4.96000E+000		3.14019E+004
4.99200E+000		7.66389E+001	5.02267E+000		1.77831E+005	5.05200E+000		3.13230E+004
5.08400E+000		7.57155E+001	5.11467E+000		1.77526E+005	5.14400E+000		3.10780E+004
5.17600E+000		6.55585E+001	5.20667E+000		1.76766E+005	5.23600E+000		3.12785E+004
5.26800E+000		4.43212E+001	5.29867E+000		1.76902E+005	5.32800E+000		3.13258E+004
5.36000E+000		6.46351E+001	5.39067E+000		1.77203E+005	5.42000E+000		3.08942E+004
5.45200E+000		3.10255E+002	5.48267E+000		1.77160E+005	5.51200E+000		3.09090E+004
5.54400E+000		1.52742E+003	5.57467E+000		1.74919E+005	5.60400E+000		3.09230E+004
5.63600E+000		4.48178E+003	5.66667E+000		1.72553E+005	5.69600E+000		3.02492E+004
5.72800E+000		8.34275E+003	5.75867E+000		1.70469E+005	5.78800E+000		3.02344E+004
5.82000E+000		1.10738E+004	5.85067E+000		1.68702E+005	5.88000E+000		2.99699E+004
5.91200E+000		1.21368E+004	5.94267E+000		1.68629E+005	5.97200E+000		3.00887E+004
6.00400E+000		1.15438E+004	6.03467E+000		1.67956E+005	6.06400E+000		2.97694E+004
6.09600E+000		1.05170E+004	6.12667E+000		1.68770E+005	6.15600E+000		3.00562E+004
6.18800E+000		9.14353E+003	6.21867E+000		1.70214E+005	6.24800E+000		3.01007E+004
6.28000E+000		7.52081E+003	6.31067E+000		1.71597E+005	6.34000E+000		3.03494E+004
6.37200E+000		6.12957E+003	6.40267E+000		1.72418E+005	6.43200E+000		3.05861E+004
6.46400E+000		4.82554E+003	6.49467E+000		1.72211E+005	6.52400E+000		3.05258E+004
6.55600E+000		3.85624E+003	6.58667E+000		1.73851E+005	6.61600E+000		3.06817E+004
6.64800E+000		3.08572E+003	6.67867E+000		1.73136E+005	6.70800E+000		3.06455E+004
6.74000E+000		2.34301E+003	6.77067E+000		1.74283E+005	6.80000E+000		3.07652E+004
6.83200E+000		1.85900E+003	6.86267E+000		1.74196E+005	6.89200E+000		3.07207E+004
6.92400E+000		1.50064E+003	6.95467E+000		1.74703E+005	6.98400E+000		3.08070E+004
7.01600E+000		1.14969E+003	7.04667E+000		1.74631E+005	7.07600E+000		3.04914E+004
7.10800E+000		8.90179E+002	7.13867E+000		1.75138E+005	7.16800E+000		3.08478E+004
7.20000E+000		7.41499E+002	7.23067E+000		1.75155E+005	7.26000E+000		3.09907E+004
7.29200E+000		5.61426E+002	7.32267E+000		1.75155E+005	7.35200E+000		3.07652E+004
7.38400E+000		4.53384E+002	7.41467E+000		1.75652E+005	7.44400E+000		3.07633E+004
7.47600E+000		3.65659E+002	7.50667E+000		1.75183E+005	7.53600E+000		3.08673E+004
7.56800E+000		2.86246E+002	7.59867E+000		1.75204E+005	7.62800E+000		3.04543E+004
7.66000E+000		2.00371E+002	7.69067E+000		1.75906E+005	7.72000E+000		3.05007E+004
7.75200E+000		1.68976E+002	7.78267E+000		1.75926E+005	7.81200E+000		3.06752E+004
7.84400E+000		1.45892E+002	7.87467E+000		1.75836E+005	7.90400E+000		3.10269E+004
7.93600E+000		1.24654E+002	7.96667E+000		1.75699E+005	7.99600E+000		3.08014E+004
8.02800E+000		9.60296E+001	8.05867E+000		1.76813E+005	8.08800E+000		3.06408E+004
8.12000E+000		6.55585E+001	8.15067E+000		1.76118E+005	8.18000E+000		3.05285E+004
8.21200E+000		7.20220E+001	8.24267E+000		1.76016E+005	8.27200E+000		3.10353E+004
8.30400E+000		4.80146E+001	8.33467E+000		1.76538E+005	8.36400E+000		3.07782E+004
8.39600E+000		9.51062E+001	8.42667E+000		1.76516E+005	8.45600E+000		3.10566E+004
8.48800E+000		3.62889E+002	8.51867E+000		1.75719E+005	8.54800E+000		3.09044E+004
8.58000E+000		1.31870E+003	8.61067E+000		1.75630E+005	8.64000E+000		3.05026E+004
8.67200E+000		3.76569E+003	8.70267E+000		1.73425E+005	8.73200E+000		3.03513E+004
8.76400E+000		7.12421E+003	8.79467E+000		1.70409E+005	8.82400E+000		2.97871E+004
8.85600E+000		1.05410E+004	8.88667E+000		1.68540E+005	8.91600E+000		2.98604E+004
8.94800E+000		1.27900E+004	8.97867E+000		1.67217E+005	9.00800E+000		2.99792E+004
9.04000E+000		1.39301E+004	9.07067E+000		1.66912E+005	9.10000E+000		2.95663E+004
9.13200E+000		1.36303E+004	9.16267E+000		1.67477E+005	9.19200E+000		3.00051E+004
9.22400E+000		1.27419E+004	9.25467E+000		1.68390E+005	9.28400E+000		2.97472E+004
9.31600E+000		1.11543E+004	9.34667E+000		1.69474E+005	9.37600E+000		3.01620E+004
9.40800E+000		9.34606E+003	9.43867E+000		1.70896E+005	9.46800E+000		2.99736E+004
9.50000E+000		7.61695E+003	9.53067E+000		1.71428E+005	9.56000E+000		3.04023E+004
9.59200E+000		6.26915E+003	9.62267E+000		1.73295E+005	9.65200E+000		3.04302E+004
9.68400E+000		4.99003E+003	9.71467E+000		1.74542E+005	9.74400E+000		3.05072E+004
9.77600E+000		3.93755E+003	9.80667E+000		1.74589E+005	9.83600E+000		3.12627E+004
9.86800E+000		3.09126E+003	9.89867E+000		1.75440E+005	9.92800E+000		3.08654E+004
9.96000E+000		2.51759E+003	9.99067E+000		1.76132E+005	1.00200E+001		3.09657E+004
1.00520E+001		1.81005E+003	1.00827E+001		1.76527E+005	1.01120E+001		3.10260E+004
1.01440E+001		1.53573E+003	1.01747E+001		1.76406E+005	1.02040E+001		3.05258E+004
1.02360E+001		1.16169E+003	1.02667E+001		1.77427E+005	1.02960E+001		3.08051E+004
1.03280E+001		9.52977E+002	1.03587E+001		1.77445E+005	1.03880E+001		3.08868E+004
1.04200E+001		7.11025E+002	1.04507E+001		1.76629E+005	1.04800E+001		3.09397E+004
1.05120E+001		5.64196E+002	1.05427E+001		1.76668E+005	1.05720E+001		3.09155E+004
1.06040E+001		4.32145E+002	1.06347E+001		1.77522E+005	1.06640E+001		3.10566E+004
1.06960E+001		3.33340E+002	1.07267E+001		1.77517E+005	1.07560E+001		3.11680E+004
1.07880E+001		2.68702E+002	1.08187E+001		1.77830E+005	1.08480E+001		3.06223E+004
1.08800E+001		2.39154E+002	1.09107E+001		1.77707E+005	1.09400E+001		3.06176E+004
1.09720E+001		2.01295E+002	1.10027E+001		1.76986E+005	1.10320E+001		3.10241E+004
1.10640E+001		1.60666E+002	1.10947E+001		1.77518E+005	1.11240E+001		3.11866E+004
1.11560E+001		1.00647E+002	1.11867E+001		1.77097E+005	1.12160E+001		3.11105E+004
1.12480E+001		1.08957E+002	1.12787E+001		1.82688E+005	1.13080E+001		3.11299E+004
1.13400E+001		8.77193E+001	1.13707E+001		1.75429E+005	1.14000E+001		3.04125E+004
1.14320E+001		7.66389E+001	1.14627E+001		1.74241E+005	1.14920E+001		3.04116E+004
1.15240E+001		7.29454E+001	1.15547E+001		1.72689E+005	1.15840E+001		3.03596E+004
1.16160E+001		5.17080E+001	1.16467E+001		1.73191E+005	1.16760E+001		3.02483E+004
1.17080E+001		3.97044E+001	1.17387E+001		1.72306E+005	1.17680E+001		3.00887E+004
1.18000E+001		4.15511E+001	1.18307E+001		1.71849E+005	1.18600E+001		2.96368E+004
1.18920E+001		3.04708E+001	1.19227E+001		1.72693E+005	1.19520E+001		3.00608E+004
1.19840E+001		3.13941E+001	1.20147E+001		1.70875E+005	1.20440E+001		2.99328E+004
1.20760E+001		2.86241E+001	1.21067E+001		1.71613E+005	1.21360E+001		2.99727E+004
1.21680E+001		2.49306E+001	1.21987E+001		1.71898E+005	1.22280E+001		2.99652E+004
1.22600E+001		2.58540E+001	1.22907E+001		1.71610E+005	1.23200E+001		3.00562E+004
1.23520E+001		3.41642E+001	1.23827E+001		1.71731E+005	1.24120E+001		3.01945E+004
1.24440E+001		2.67774E+001	1.24747E+001		1.71501E+005	1.25040E+001		2.98112E+004
1.25360E+001		2.58540E+001	1.25667E+001		1.72128E+005	1.25960E+001		3.03123E+004
1.26280E+001		1.56970E+001	1.26587E+001		1.72279E+005	1.26880E+001		3.01026E+004
1.27200E+001		1.84671E+001	1.27507E+001		1.72669E+005	1.27800E+001		3.01712E+004
1.28120E+001		3.04708E+001	1.28427E+001		1.72917E+005	1.28720E+001		2.98168E+004
1.29040E+001		2.30839E+001	1.29347E+001		1.72547E+005	1.29640E+001		3.00330E+004
1.29960E+001		1.84671E+001	1.30267E+001		1.72464E+005	1.30560E+001		3.03504E+004
1.30880E+001		1.66204E+001	1.31187E+001		1.72821E+005	1.31480E+001		3.02418E+004
1.31800E+001		2.30839E+001	1.32107E+001		1.73101E+005	1.32400E+001		3.00905E+004
1.32720E+001		2.03138E+001	1.33027E+001		1.73292E+005	1.33320E+001		3.00135E+004
1.33640E+001		3.04708E+001	1.33947E+001		1.74039E+005	1.34240E+001		3.02882E+004
1.34560E+001		2.21605E+001	1.34867E+001		1.73198E+005	1.35160E+001		3.02696E+004
1.35480E+001		2.58540E+001	1.35787E+001		1.73773E+005	1.36080E+001		3.02603E+004
1.36400E+001		2.67773E+001	1.36707E+001		1.73834E+005	1.37000E+001		3.03633E+004
1.37320E+001		1.47737E+001	1.37627E+001		1.74501E+005	1.37920E+001		3.02371E+004
1.38240E+001		1.66204E+001	1.38547E+001		1.74611E+005	1.38840E+001		3.05508E+004
1.39160E+001		1.84671E+001	1.39467E+001		1.75130E+005	1.39760E+001		3.04877E+004
1.40080E+001		2.67773E+001	1.40387E+001		1.74703E+005	1.40680E+001		3.02427E+004
1.41000E+001		1.38503E+001	1.41307E+001		1.75556E+005	1.41600E+001		3.07160E+004
1.41920E+001		2.77007E+001	1.42227E+001		1.75298E+005	1.42520E+001		3.06752E+004
1.42840E+001		2.49306E+001	1.43147E+001		1.74979E+005	1.43440E+001		3.04515E+004
1.43760E+001		2.30839E+001	1.44067E+001		1.75397E+005	1.44360E+001		3.04023E+004
1.44680E+001		2.40073E+001	1.44987E+001		1.76292E+005	1.45280E+001		3.03986E+004
1.45600E+001		1.75438E+001	1.45907E+001		1.75530E+005	1.46200E+001		3.02761E+004
1.46520E+001		2.49306E+001	1.46827E+001		1.75979E+005	1.47120E+001		3.05016E+004
1.47440E+001		1.29270E+001	1.47747E+001		1.75896E+005	1.48040E+001		3.05081E+004
1.48360E+001		2.03138E+001	1.48667E+001		1.76216E+005	1.48960E+001		3.05805E+004
1.49280E+001		2.77007E+001	1.49587E+001		1.75570E+005	1.49880E+001		3.07680E+004
1.50200E+001		1.93905E+001	1.50507E+001		1.76153E+005	1.50800E+001		3.05546E+004
1.51120E+001		2.12372E+001	1.51427E+001		1.76437E+005	1.51720E+001		3.06863E+004
1.52040E+001		2.49306E+001	1.52347E+001		1.75796E+005	1.52640E+001		3.09759E+004
1.52960E+001		3.04708E+001	1.53267E+001		1.76718E+005	1.53560E+001		3.08246E+004
1.53880E+001		2.77007E+001	1.54187E+001		1.76934E+005	1.54480E+001		3.11077E+004
1.54800E+001		2.49306E+001	1.55107E+001		1.76587E+005	1.55400E+001		3.07986E+004
1.55720E+001		2.30839E+001	1.56027E+001		1.77083E+005	1.56320E+001		3.07132E+004
1.56640E+001		1.56970E+001	1.56947E+001		1.76709E+005	1.57240E+001		3.06501E+004
1.57560E+001		1.93905E+001	1.57867E+001		1.76585E+005	1.58160E+001		3.06835E+004
1.58480E+001		2.49306E+001	1.58787E+001		1.77101E+005	1.59080E+001		3.08190E+004
1.59400E+001		2.21605E+001	1.59707E+001		1.75917E+005	1.60000E+001		3.09712E+004
1.60320E+001		2.67773E+001	1.60627E+001		1.77714E+005	1.60920E+001		3.07476E+004
1.61240E+001		2.40073E+001	1.61547E+001		1.77993E+005	1.61840E+001		3.07142E+004
1.62160E+001		1.66204E+001	1.62467E+001		1.76382E+005	1.62760E+001		3.07281E+004
1.63080E+001		1.66204E+001	1.63387E+001		1.77779E+005	1.63680E+001		3.06585E+004
1.64000E+001		2.21606E+001	1.64307E+001		1.77321E+005	1.64600E+001		3.09165E+004
1.64920E+001		1.84671E+001	1.65227E+001		1.77107E+005	1.65520E+001		3.07698E+004
1.65840E+001		1.84671E+001	1.66147E+001		1.76912E+005	1.66440E+001		3.07986E+004
1.66760E+001		1.75438E+001	1.67067E+001		1.77068E+005	1.67360E+001		3.08831E+004
1.67680E+001		2.86240E+001	1.67987E+001		1.77102E+005	1.68280E+001		3.10204E+004
1.68600E+001		1.93905E+001	1.68907E+001		1.76833E+005	1.69200E+001		3.12116E+004
1.69520E+001		1.47737E+001	1.69827E+001		1.77897E+005	1.70200E+001		3.06937E+004

*** DATA END ***

*** ANALYSIS POSITION ***

Data file name(s)	DLT001_Al_10_5.dp
Shuttle_ID		Multisize
Stage coordinates
X(um)			-8309	
Y(um)			1615	
Z(um)			0	
Window coordinates
X(um)			-809	
Y(um)			-884	
Sample coordinates
X(um)			-809	
Y(um)			-884	

*** ANALYSIS RECIPE ***

File name(s)		No_name_1.rdp
Creation date		05/08/2007
Creation time		13:40	

*** ACQUISITION PARAMETERS ***

Data file name(s)		DLT001_Al_10_5.dp
# of data point/species		185	
Total sputtering time (s)	1021	
Total acquisition time (s)	1024	
Crater depth measurement	No	
   Total depth (nm)			
Frame number/data point		0	
Sputtering for waiting time	Yes	
Pre-sputtering			No	
   Time (s)				
Reference signal		No	
   Species				
   Integration time (s)			
   Mass calibration			
Mass calib monitoring		No	
   Species				
   Cycle # for first control		
   Control period (cycles)		
   # data point per peak width		
   Counting time			
   # of mass scans			
HV sample monitoring		No	
   Species				
   Cycle # for first control		
   Control period (cycles)		
   Offset min (V)			
   Offset max (V)			
   Offset step (V)			
   Energy pass band (eV)		
   Energy gap (eV)			
   Counting time			
Comments				


*** MEASUREMENT CONDITIONS, DLT001_Al_10_5.dp ***:

Species         | Mass (amu) | Mass (field) | Detector | WT(s)   | Extra WT(s) | CT(s)   | Offset
-------------------------------------------------------------------------------------------------
133Cs27Al       | 159.887    | 2092282      | EM       | 0.880   | 0.000       | 1.040   | 0
133Cs69Ga       | 201.831    | 2351490      | EM       | 0.800   | 0.000       | 1.040   | 0
133Cs75As       | 207.827    | 2386151      | EM       | 0.720   | 0.000       | 1.040   | 0

*** MAIN ANALYTICAL PARAMETERS (MAP) ***

Data file name(s)		DLT001_Al_10_5.dp
ISF file name			Cs10kv+5k_.C6
Primary ions			Cs+	
Primary column			Non-Floating
Impact energy (eV)		5000	
Secondary ion polarity		+	
Secondary ion energy (V)	5000	

*** OPTIONAL INSTRUMENTAL PARAMETERS (OIP) ***

Data file name(s)		DLT001_Al_10_5.dp
Prim beam preset		0	
Prim beam intensity @t=0 (nA)	5.873E+000
Prim beam intensity @t=end (nA)	5.938E+000
Prim beam intensity regulation	No	
Raster size (um)		200	
DTOS				Off	
Analyzed area size (um)		140	
EGate rate (%)			70	
Mass resolution			400	
Field aperture (um)		750	
Contrast aperture (um)		150	
Entrance slit (um)		401	
Exit slit (um)			599	
Energy window (eV)		100	
Energy slit offset (eV)		0	
PBMF aperture (um)		0	
LPRIM4 aperture (um)		0	
Rotation			Off	
Speed (rpm)			0.020	

*** ION DETECTOR PARAMETERS ***

Data file name(s)		DLT001_Al_10_5.dp
EM yield (%)			1.0E+002
EM HV (V)			2391	
EM discriminator threshold (mV)	100	
EM background (c/s)		0.0E+000
EM dead time (ns)		3.8E+001
EM -> FC threshold (c/s)	1058792	
FC -> EM threshold (c/s)	866285	

*** OTHERS ***

Data file name(s)		DLT001_Al_10_5.dp
Oxygen flooding			No	
Analysis chamber press (mbar)	0.0E+000
Electron gun			No	
   e-gun HV			0.0E+000
   e-beam current		0.0E+000

*** CALIBRATION PARAMETERS ***

Data File name(s)	DLT001_Al_10_5.dp
Layer #1 matrix		69Ga 75As 	
  1st Interface (nm)	0.000E+000	
  2nd Interface (nm)	1.000E+003	
  Depth calib method	Depth		
  Mean SR (nm/min)	5.875E+001	
    Species		133Cs 27Al	
      Conc calib method	
      RSF  (at/cm3)	
      Dose (at/cm2)	
      [C]  (at/cm3)	
      Ref signal	
    Species		133Cs 69Ga	
      Conc calib method	
      RSF  (at/cm3)	
      Dose (at/cm2)	
      [C]  (at/cm3)	
      Ref signal	
    Species		133Cs 75As	
      Conc calib method	
      RSF  (at/cm3)	
      Dose (at/cm2)	
      [C]  (at/cm3)	
      Ref signal	
